File: Battery_Data/voltage_profile_detailed.csv
time/h,Ewe/V
0.000277056,3.2013
0.000745056,3.31335
0.00116,3.43369
0.00171,3.55413
0.00264,3.67456
0.07413,3.66247
0.17413,3.68184
0.27413,3.70327
0.37413,3.72259
0.47413,3.73886
0.57413,3.75245
0.67413,3.76435
0.77413,3.77484
0.87413,3.78427
0.97413,3.79328
1.07413,3.80184
1.17413,3.80986
1.27413,3.81754
1.37413,3.82546
1.47413,3.83307
1.57413,3.84095
1.67413,3.84921
1.77413,3.8579
1.87413,3.86727
1.97413,3.87731
2.07413,3.88787
2.17413,3.89933
2.27413,3.91113
2.37413,3.92357
2.47413,3.9364
2.57413,3.94934
2.67413,3.96263
2.77413,3.97613
2.87413,3.98951
2.97413,4.00303
3.07413,4.01677
3.17413,4.03054
3.27413,4.04442
3.37413,4.05846
3.47413,4.07264
3.57413,4.08704
3.67413,4.1017
3.77413,4.11675
3.87413,4.13197
3.97413,4.14768
4.07413,4.1637
4.17413,4.18008
4.27413,4.19688
4.37413,4.21399
4.47413,4.23156
4.57413,4.24919
4.67413,4.2674
4.77413,4.28576
4.87413,4.3043
4.97413,4.32329
5.07413,4.34224
5.17413,4.3609
5.27413,4.37831
5.37413,4.3941
5.47413,4.40817
5.57413,4.42058
5.67413,4.43194
5.77413,4.44237
5.87413,4.45186
5.97413,4.46076
6.07413,4.46869
6.17413,4.47624
6.27413,4.48318
6.37413,4.48967
6.47413,4.4956
6.57413,4.50092
6.67413,4.50579
6.77413,4.51043
6.87413,4.5144
6.97413,4.51841
7.07413,4.52199
7.17413,4.52494
7.27413,4.52802
7.37413,4.53096
7.47413,4.53383
7.57413,4.53613
7.67413,4.53874
7.77413,4.54138
7.87413,4.54345
7.97413,4.54559
8.07413,4.54807
8.17413,4.55013
8.27413,4.55209
8.37413,4.55442
8.47413,4.55657
8.57413,4.5586
8.67413,4.56078
8.77413,4.56294
8.87413,4.56514
8.97413,4.56752
9.07413,4.56977
9.17413,4.57226
9.27413,4.57525
9.37413,4.57765
9.47413,4.58068
9.57413,4.58361
9.67413,4.58667
9.77413,4.59058
9.87413,4.59426
9.97413,4.59816
10.07413,4.6025
10.17413,4.6072
10.27413,4.61239
10.37413,4.61865
10.47413,4.62519
10.57413,4.63286
10.67413,4.64148
10.77413,4.65136
10.87413,4.66287
10.97413,4.67553
11.07413,4.69084
11.12738,4.66258
11.13104,4.54231
11.21968,4.47385
11.31968,4.44068
11.41968,4.41301
11.51968,4.38869
11.61968,4.36604
11.71968,4.34433
11.81968,4.32352
11.91968,4.30272
12.01968,4.28201
12.11968,4.26156
12.21968,4.24147
12.31968,4.22105
12.41968,4.20094
12.51968,4.18097
12.61968,4.1612
12.71968,4.14191
12.81968,4.12284
12.91968,4.10427
13.01968,4.08612
13.11968,4.06863
13.21968,4.0517
13.31968,4.03515
13.41968,4.01923
13.51968,4.00392
13.61968,3.98898
13.71968,3.97483
13.81968,3.96089
13.91968,3.94764
14.01968,3.93486
14.11968,3.92247
14.21968,3.91067
14.31968,3.89911
14.41968,3.88806
14.51968,3.87706
14.61968,3.86641
14.71968,3.85597
14.81968,3.84582
14.91968,3.83563
15.01968,3.82565
15.11968,3.81602
15.21968,3.80644
15.31968,3.7971
15.41968,3.78803
15.51968,3.77926
15.61968,3.77063
15.71968,3.76218
15.81968,3.75416
15.91968,3.74645
16.01968,3.73881
16.11968,3.73137
16.21968,3.72382
16.31968,3.71603
16.41968,3.70824
16.51968,3.70012
16.61968,3.69152
16.71968,3.6825
16.81968,3.673
16.91968,3.66288
17.01968,3.65216
17.11968,3.64093
17.21968,3.6288
17.31968,3.61602
17.41968,3.60267
17.51968,3.58853
17.61968,3.57379
17.71968,3.55861
17.81968,3.54294
17.91968,3.52667
18.01968,3.51013
18.11968,3.49339
18.21968,3.47632
18.31968,3.45913
18.41968,3.4415
18.51968,3.42312
18.61968,3.40443
18.71968,3.3848
18.81968,3.3646
18.91968,3.34357
19.01968,3.32143
19.11969,3.29803
19.21969,3.27368
19.31969,3.2481
19.41969,3.22185
19.51969,3.19422
19.61969,3.16706
19.71969,3.13934
19.81969,3.11148
19.91969,3.08278
20.01969,3.05132
20.11969,3.01653
20.16112,3.0555
20.16198,3.17595
20.16802,3.29614
20.1965,3.41629
20.29298,3.48582
20.39298,3.50745
20.49298,3.52435
20.59298,3.54065
20.69298,3.55831
20.79298,3.57702
20.89298,3.59654
20.99298,3.61619
21.09298,3.63515
21.19298,3.65355
21.29298,3.67042
21.39298,3.68566
21.49298,3.69923
21.59298,3.71133
21.69298,3.72219
21.79299,3.73193
21.89299,3.74106
21.99299,3.74953
22.09299,3.75734
22.19299,3.76503
22.29299,3.77249
22.39299,3.77994
22.49299,3.78757
22.59299,3.79515
22.69299,3.80292
22.79299,3.81102
22.89299,3.81942
22.99299,3.8279
23.09299,3.83657
23.19299,3.84572
23.293,3.85494
23.393,3.86429
23.493,3.8737
23.593,3.88327
23.693,3.89281
23.793,3.90231
23.893,3.91196
23.993,3.92173
24.093,3.93157
24.193,3.94141
24.293,3.95142
24.393,3.9616
24.493,3.97208
24.593,3.98276
24.693,3.99349
24.793,4.0044
24.89301,4.0158
24.99301,4.02733
25.09301,4.03905
25.19301,4.05125
25.29301,4.06351
25.39301,4.07619
25.49301,4.08927
25.59301,4.10256
25.69301,4.1162
25.79301,4.13022
25.89301,4.14444
25.99301,4.15907
26.09301,4.17383
26.19301,4.18886
26.29301,4.2042
26.39302,4.21963
26.49302,4.23528
26.59302,4.25062
26.69302,4.26616
26.79302,4.28178
26.89302,4.29728
26.99302,4.3128
27.09302,4.32827
27.19302,4.34378
27.29302,4.35952
27.39302,4.3748
27.49302,4.39038
27.59302,4.40583
27.69302,4.42151
27.79302,4.43755
27.89302,4.45368
27.99303,4.47006
28.09303,4.48683
28.16335,4.49871